BEGIN IONS
TITLE=Spectrum1 scans: 2,
PEPMASS=458.87445 53252.67578
CHARGE=2+
RTINSECONDS=0
SCANS=2
188.99637 769.727
207.00714 1632.24
216.99226 512.98
386.89001 5031.89
389.87222 472.146
392.90140 1492.06
398.87585 518.103
402.88538 7399.96
404.90091 3198.87
410.91153 718.747
412.86203 461.186
420.89560 9449.54
430.87961 27017.6
438.90656 1287.27
448.89035 23843.1
458.87326 1586.4
466.90121 1467.13
476.88235 527.678
494.83270 408.441
512.84967 1805.82
513.84778 545.28
522.79602 591.595
530.85968 635.69
531.80267 1723.31
540.80762 3730.87
541.30298 341.952
549.81396 3628.17
550.31201 427.231
558.81775 1185.91
END IONS

BEGIN IONS
TITLE=Spectrum3 scans: 6,
PEPMASS=437.89532 13403.35645
CHARGE=2+
RTINSECONDS=2
SCANS=6
354.96179 558.53
356.88620 565.919
382.86389 2847.92
383.86865 482.974
392.37585 377.374
400.87643 1321.13
409.88281 565.707
410.86490 367.503
418.88785 343.987
423.88065 585.127
438.35028 326.055
446.85721 399.526
455.85962 805.644
464.86530 693.636
469.85803 510.024
480.88754 545.751
501.80789 390.209
510.81461 1267.95
519.81970 2307.23
520.32135 381.879
520.82025 659.89
528.82025 1893.49
529.31995 398.619
529.82324 641.12
537.82660 1150.78
END IONS

BEGIN IONS
TITLE=Spectrum4 scans: 9,
PEPMASS=476.88638 40217.66016
CHARGE=2+
RTINSECONDS=3
SCANS=9
411.36475 390.501
419.86530 388.565
420.36908 523.137
428.87357 566.087
429.37521 795.196
437.87723 358.313
438.38242 539.591
475.35120 359.765
484.84055 660.836
502.85083 923.721
512.83429 4130.75
513.83667 1518.72
530.84668 1872.75
531.84570 711.833
549.79517 601.019
554.79431 432.532
560.79858 643.195
566.80579 922.183
567.80035 543.001
END IONS

BEGIN IONS
TITLE=Spectrum5 scans: 11,
PEPMASS=411.39038 9253.19629
CHARGE=2+
RTINSECONDS=3
SCANS=11
300.95065 335.866
310.93411 762.176
311.93698 336.894
326.96683 681.184
327.07730 969.05
328.94482 1234.86
329.94748 579.152
331.89597 818.208
338.87433 780.908
340.90042 1986.91
341.40198 705.581
349.90485 2889.77
350.40622 1287.25
354.89325 617.212
354.96414 459.383
356.88553 1312.89
358.90988 4173.68
359.41122 1729.58
359.91251 335.091
363.89893 1217.63
364.40305 513.746
367.91550 1381
368.41675 622.241
368.89493 1079.33
369.39426 508.655
372.90259 1175.1
373.40439 760.096
377.90073 2639.58
378.40158 1661.98
378.91159 615.447
381.90652 570.942
382.86307 1989.93
383.02713 513.769
383.86676 898.339
386.90540 2159.85
387.40500 1071.25
387.90247 457.866
390.88324 798.218
395.87961 1427.68
396.38800 683.172
396.87839 387.517
399.88571 493.637
400.87180 1025.77
401.87302 447.572
404.88010 2286.21
405.38235 1095.63
405.88510 412.556
409.87274 752.821
413.88464 1168.41
414.38660 441.81
418.87894 797.661
427.88361 504.577
466.80203 402.028
484.81631 372.323
500.84286 617.997
END IONS

BEGIN IONS
TITLE=Spectrum8 scans: 17,
PEPMASS=497.86456 4084.99048
CHARGE=2+
RTINSECONDS=5
SCANS=17
459.84448 409.554
460.84662 485.866
469.84769 510.481
470.83112 342.034
474.84320 418.393
477.85739 382.487
478.85397 366.553
515.83154 384.92
540.84998 500.952
561.77625 1155.29
570.78113 1328.31
579.78644 753.008
580.28821 337.868
END IONS

BEGIN IONS
TITLE=Spectrum9 scans: 19,
PEPMASS=588.88080 2669.65063
CHARGE=2+
RTINSECONDS=5
SCANS=19
532.83148 352.439
534.84167 747.918
550.83813 2528.15
551.84302 830.339
552.85553 384.477
560.82214 1828.6
561.83026 577.157
568.84698 874.537
578.83337 4331.63
579.83508 1513.32
596.84290 2179.29
597.84845 614.482
642.78448 524.8
660.74396 507.188
678.74316 415.366
696.75458 588.008
END IONS

BEGIN IONS
TITLE=Spectrum10 scans: 22,
PEPMASS=418.92480 4308.72363
CHARGE=2+
RTINSECONDS=6
SCANS=22
265.00684 524.123
392.88254 342.671
396.37875 363.652
402.88559 1917.4
404.88333 426.451
405.38098 1069.25
410.89362 689.444
414.38605 603.253
419.37976 409.236
420.84106 2284.86
420.89667 2710.34
474.84769 324.442
498.82535 380.799
511.84198 332.856
END IONS

BEGIN IONS
TITLE=Spectrum11 scans: 24,
PEPMASS=352.90540 24583.33398
CHARGE=2+
RTINSECONDS=7
SCANS=24
256.42538 385.914
280.96060 733.648
281.13181 335.544
282.15994 1204.29
282.93900 698.988
285.90741 344.842
288.94666 331.238
296.90985 593.866
298.97214 329.319
300.95071 820.898
303.87085 1139.9
305.90985 2564.82
306.41333 406.813
306.89600 579.157
307.93808 414.616
310.90738 531.861
313.90195 407.266
314.91953 5609.55
315.41895 933.849
315.90344 2666.8
316.40500 738.533
316.94202 861.15
319.91016 5289.91
320.41183 906.747
321.87982 803.747
323.92303 7679.27
324.42416 1219.35
324.90823 7335.7
324.95087 2618.41
325.40939 2275.1
325.91257 422.617
326.92419 5575.53
326.96219 451.548
327.92807 382.703
328.91519 4647.36
329.41583 845.367
331.86401 863.14
332.93430 7946.51
333.91437 4301.26
334.41449 1314.35
337.91885 1489.64
338.42200 356.158
342.91870 24389.9
342.96271 3709.01
343.41840 1064.54
343.92264 2278.97
344.93478 497.212
346.89648 950.228
349.87558 590.984
351.92511 958.36
352.23807 1748.05
352.42398 349.775
352.98175 334.452
355.90094 1118.09
359.86005 800.076
360.92941 5572.95
361.39304 587.226
361.92920 523.969
364.90698 625.417
365.88873 938.103
366.90030 529.405
369.89832 1475.33
370.40002 547.811
370.91498 3351.68
370.99252 350.438
371.85968 1507.16
371.91919 399.53
374.89334 1261.2
375.39456 532.322
378.90939 580.082
383.89795 953.735
388.92264 3079.64
389.86850 560.033
389.92697 383.868
406.87857 627.733
407.87851 387.465
415.87878 488.92
424.89673 487.053
END IONS

BEGIN IONS
TITLE=Spectrum12 scans: 26,
PEPMASS=481.88452 6602.34131
CHARGE=2+
RTINSECONDS=8
SCANS=26
444.86871 1254.62
453.87183 732.852
456.86600 976.124
462.87830 2164.17
472.86392 536.936
474.87637 1110.58
480.88766 4358.45
482.84427 1385.91
492.88760 519.629
498.89926 642.238
500.85519 6357.49
518.86646 6266.75
536.87634 3656.81
554.82672 887.008
560.79401 919.4
566.79547 632.248
572.84497 515.746
END IONS

BEGIN IONS
TITLE=Spectrum16 scans: 35,
PEPMASS=475.40610 7940.06201
CHARGE=2+
RTINSECONDS=10
SCANS=35
429.37479 868.088
438.38440 823.751
447.38803 588.897
484.83493 695.073
502.84766 635.458
503.84683 489.666
512.83380 4302.72
513.83673 1614.55
530.84564 2003.95
531.85052 632.868
549.79553 452.081
558.79504 636.558
560.80042 987.17
566.80255 460.118
567.79742 635.197
572.80884 542.95
END IONS

BEGIN IONS
TITLE=Spectrum18 scans: 39,
PEPMASS=410.89093 9386.19238
CHARGE=2+
RTINSECONDS=11
SCANS=39
310.93396 855.817
326.96524 552.362
327.07758 825.088
328.94461 2050.42
329.94736 401.164
338.87656 773.564
340.90002 1425.57
341.40140 352.487
349.90515 2508.54
350.40625 857.578
354.89215 539.965
354.96225 535.593
356.88498 1044.04
358.91049 3709.67
359.40891 754.959
363.89642 1198.37
364.40207 420.351
367.91489 1394.19
368.41803 416.283
368.89243 735.279
369.39664 705.432
372.90277 1418.36
373.40677 559.602
377.90018 2476.68
378.39963 961.203
381.90414 606.139
382.40125 384.618
382.86316 1808.71
383.02905 739.938
386.90341 1811.41
387.40320 909.846
390.88275 800.096
395.87836 1728.55
396.38092 639.295
396.88077 334.752
399.88748 422.188
400.87070 1000.3
404.88043 2312.27
405.38135 1138.19
409.87317 700.467
410.37646 445.742
413.88507 1458.75
414.38904 615.247
418.87680 726.165
419.38150 572.989
500.84421 614.664
END IONS

BEGIN IONS
TITLE=Spectrum20 scans: 43,
PEPMASS=497.86743 3707.74731
CHARGE=2+
RTINSECONDS=12
SCANS=43
459.84872 445.37
460.84827 666.167
469.85077 565.96
477.85562 430.655
478.85977 409.236
498.27405 369.482
522.83575 471.97
540.85559 393.954
561.77576 958.1
570.77991 879.61
571.27887 334.5
579.78650 698.616
588.78992 382.145
END IONS

BEGIN IONS
TITLE=Spectrum21 scans: 46,
PEPMASS=410.88977 7873.15039
CHARGE=2+
RTINSECONDS=14
SCANS=46
300.94974 348.14
310.93427 947.615
326.96658 581.05
327.07730 898.484
328.94464 1663
329.94803 505.995
331.89478 708.781
338.87576 619.882
340.89984 1403.33
341.40073 478.392
349.90390 3122.3
350.40549 657.566
354.89215 402.697
354.96005 535.102
356.88470 1179.48
358.90994 4539.61
359.41003 1143.78
363.89783 1085.65
364.98044 350.249
367.91483 1371.13
368.41559 330.301
368.89362 933.466
369.39267 413.819
372.90451 1135.39
373.40533 733.469
377.90073 3439.34
378.40094 1420.99
381.88895 771.837
382.86389 2092.36
383.02792 784.764
386.90479 1849.85
387.40366 1044.53
390.88681 601.69
391.38388 570.797
395.87982 1705.83
396.39236 556.583
399.89011 529.581
400.87256 1140.64
404.88062 2993.98
405.38174 740.256
405.88843 479.506
409.87103 850.478
413.88489 1319.1
414.38760 520.306
418.87689 909.654
419.38043 621.65
422.89606 362.634
423.87405 344.268
427.88120 542.378
500.84634 747.973
END IONS

BEGIN IONS
TITLE=Spectrum25 scans: 55,
PEPMASS=419.88696 5667.24316
CHARGE=2+
RTINSECONDS=16
SCANS=55
265.00821 542.547
293.00339 370.925
392.89609 400.064
396.37625 552.448
402.88586 2302.69
404.87778 582.356
405.38199 664.737
405.87741 351.755
410.88995 588.127
413.88849 375.599
414.38644 507.309
419.37854 406.726
420.84131 2634.51
420.89673 3426.77
438.90622 332.057
474.84143 642.186
502.84207 347.721
END IONS

BEGIN IONS
TITLE=Spectrum27 scans: 59,
PEPMASS=484.37469 5554.35596
CHARGE=2+
RTINSECONDS=18
SCANS=59
322.17953 552.229
382.86325 656.266
400.87500 452.026
414.87247 398.17
428.87180 563.246
437.88324 425.295
445.87228 331.248
446.88400 634.188
448.90445 369.304
457.86798 491.17
460.84683 553.132
469.85162 574.966
478.85870 485.269
480.88834 414.273
481.88953 630.998
483.84863 581.323
484.29407 398.684
484.83783 1175.89
501.85843 2098.6
502.85123 1664.65
519.86932 1953.28
520.86786 675.169
537.88098 1291.44
574.80219 433.526
END IONS

BEGIN IONS
TITLE=Spectrum28 scans: 61,
PEPMASS=497.87857 3339.97876
CHARGE=2+
RTINSECONDS=18
SCANS=61
416.91995 455.681
459.84381 500.338
460.84760 781.317
465.83865 378.969
469.85187 410.176
470.83881 435.774
477.85626 619.54
478.85593 438.92
483.85361 480.831
496.86292 350.332
498.26974 627.368
522.84320 732.258
534.84741 474.078
540.85229 785.568
561.77582 698.402
570.77911 917.799
571.28180 414.453
579.78748 1036.85
END IONS

BEGIN IONS
TITLE=Spectrum29 scans: 63,
PEPMASS=529.91736 3435.06641
CHARGE=2+
RTINSECONDS=19
SCANS=63
491.81882 1063.97
492.82462 331.085
509.83078 500.214
519.86877 382.228
520.81641 460.088
529.83429 459.432
601.76642 490.431
602.76361 660.654
607.43542 335.532
608.77118 484.854
620.77454 802.371
621.77350 476.561
630.78381 333.823
END IONS

BEGIN IONS
TITLE=Spectrum30 scans: 66,
PEPMASS=476.88684 32761.12305
CHARGE=2+
RTINSECONDS=20
SCANS=66
411.36700 353.766
420.37195 386.042
429.37567 676.425
438.38278 710.112
447.38504 376.773
453.85577 416.563
484.83777 782.025
486.85312 357.207
502.85028 702.801
512.83533 4364.11
513.83813 1529.9
530.84564 1778.32
531.84619 739.634
549.79590 455.565
558.79846 696.983
560.79822 489.303
566.80511 856.57
567.79895 415.874
END IONS

BEGIN IONS
TITLE=Spectrum31 scans: 68,
PEPMASS=423.89993 11338.08691
CHARGE=2+
RTINSECONDS=20
SCANS=68
331.89197 511.889
340.90036 1135.64
349.90488 1299.16
358.91177 2073.96
363.90073 420.332
367.91916 707.786
368.89471 1255.2
372.90649 435.429
377.90039 3284.64
385.90039 831.154
386.90521 1714.78
395.90274 699.161
404.88824 572.16
405.86325 441.922
409.87915 695.666
413.91086 574.742
414.86896 1517.92
414.92215 1496.25
418.88422 1383.19
423.87567 1975.88
424.86142 1365.68
432.88153 1296.49
441.86945 371.465
442.86990 884.409
450.86243 398.99
455.85831 611.833
464.86346 359.757
496.86176 638.001
END IONS

BEGIN IONS
TITLE=Spectrum33 scans: 73,
PEPMASS=435.91043 12670.18457
CHARGE=2+
RTINSECONDS=22
SCANS=73
328.94592 649.771
354.96069 643.861
382.86429 2060.54
400.87573 890.052
423.88205 356.903
446.85818 370.693
455.86316 895.189
464.86618 596.132
474.85587 345.545
478.85718 348.774
480.88831 339.047
501.80878 558.198
510.81329 1536.52
511.80850 514.489
519.81927 2659.59
520.82068 582.052
528.82288 2282.35
529.32532 449.788
529.82416 547.684
537.82703 1129.16
END IONS

BEGIN IONS
TITLE=Spectrum34 scans: 76,
PEPMASS=437.89807 5116.83643
CHARGE=2+
RTINSECONDS=23
SCANS=76
354.96060 477.835
382.86313 2125.2
400.87546 1006.03
409.88385 367.506
410.86334 397.597
418.89075 340.897
446.85565 401.286
455.85925 751.396
456.35992 397.294
464.86484 673.173
474.84534 567.177
480.88672 419.662
501.80524 367.503
510.80881 832.531
519.81915 2195.19
520.31342 395.142
520.81995 530.476
528.82190 1857.47
529.31952 587.3
529.82568 480.454
537.82837 977.315
538.83246 372.656
END IONS

BEGIN IONS
TITLE=Spectrum37 scans: 83,
PEPMASS=481.88757 3766.78662
CHARGE=2+
RTINSECONDS=25
SCANS=83
100.07967 871.547
101.08758 395.166
117.11437 685.878
149.02361 322.121
222.96054 648.108
320.16446 1767.04
444.86673 1201.46
453.86993 739.929
456.86713 728.372
462.87888 1667.82
472.85730 614
474.87424 733.459
480.88840 2628.62
482.27689 1563.58
482.84253 1228.9
490.84021 334.281
498.89938 377.994
500.85501 5448.25
518.86682 5181.56
536.87695 2765.25
554.83746 687.858
560.79395 451.163
566.80005 361.298
567.47089 356.255
572.84698 367.541
END IONS

BEGIN IONS
TITLE=Spectrum38 scans: 85,
PEPMASS=421.91968 0.00000
CHARGE=2+
RTINSECONDS=26
SCANS=85
340.89905 820.967
342.92191 354.077
349.90460 1459.87
358.91019 1824.72
363.90414 379.265
367.91669 789.33
368.89651 1152.24
377.90067 2694.94
385.90607 937.026
386.90524 1881.02
395.89795 675.422
404.88895 690.399
405.86520 742.011
409.87912 748.631
413.91537 586.976
414.86865 1349.2
414.92114 1417.83
418.88440 802.824
423.87585 2141.52
424.85873 1179.09
432.88217 1843.81
442.87045 873.031
455.85916 428.249
464.86496 489.712
496.86078 357.516
END IONS

BEGIN IONS
TITLE=Spectrum43 scans: 96,
PEPMASS=474.90353 7733.36914
CHARGE=2+
RTINSECONDS=29
SCANS=96
429.37668 697.775
437.87881 366.376
438.38321 417.149
470.35449 359.258
484.83618 380.754
494.81564 380.774
502.84875 951.423
512.83527 3707.64
513.83667 1441.07
530.84668 1588.88
531.84741 658.43
549.79602 543.705
554.79425 476.246
558.79327 445.997
560.80096 461.007
566.80438 469.13
567.80267 346.706
END IONS

BEGIN IONS
TITLE=Spectrum45 scans: 100,
PEPMASS=497.86972 6899.00342
CHARGE=2+
RTINSECONDS=30
SCANS=100
459.84875 459.112
460.84802 747.827
469.85333 484.39
470.83600 469.854
477.85794 678.34
478.85489 394.876
483.85184 393.619
498.27399 771.502
522.84766 339.765
540.86029 362.957
561.77863 1202.2
570.77924 1196.45
579.78772 659.694
588.79187 405.137
END IONS

BEGIN IONS
TITLE=Spectrum46 scans: 102,
PEPMASS=409.90430 4243.96094
CHARGE=2+
RTINSECONDS=31
SCANS=102
303.88388 713.014
305.90054 447.539
310.93390 850.306
328.94495 1876.73
331.87680 628.528
338.87476 372.87
349.90137 499.322
354.88998 409.849
356.88553 754.741
358.90500 727.899
359.87262 1006.95
363.89334 519.25
372.88217 877.879
380.87000 346.687
381.89697 389.691
382.86270 1085.48
386.86786 439.173
395.87558 1110.42
399.88950 509.407
400.87332 762.644
404.87924 2157.93
409.87265 800.927
413.88559 918.495
418.88007 917.059
445.86792 381.042
463.88037 623.025
481.83801 334.809
481.88986 1005.48
487.50034 388.25
490.83203 709.227
500.84085 513.697
518.86169 411.118
END IONS

BEGIN IONS
TITLE=Spectrum48 scans: 107,
PEPMASS=437.89706 8584.80957
CHARGE=2+
RTINSECONDS=32
SCANS=107
354.96167 515.908
382.86523 2552.97
400.87503 1365.7
409.88757 467.462
418.89160 436.019
423.88107 395.164
446.85641 708.927
455.85910 922.745
464.86676 779.905
474.84955 514.076
478.86011 367.309
480.88519 519.852
501.80756 826.902
502.80737 386.322
510.81036 1400.96
511.81223 376.683
519.81958 2646.5
520.32196 422.676
520.81769 855.365
528.82428 2041.83
529.31763 569.271
529.82440 808.721
537.82831 665.223
538.82965 362.09
END IONS

BEGIN IONS
TITLE=Spectrum53 scans: 118,
PEPMASS=497.90860 2733.93579
CHARGE=2+
RTINSECONDS=36
SCANS=118
459.84415 652.317
460.84991 608.895
469.84903 348.768
470.83588 471.916
474.84653 355.516
477.85150 394.169
496.85580 331.749
498.26694 480.15
522.84485 506.761
540.85516 418.464
561.78040 756.817
570.78046 1179.72
579.78949 696.603
588.79834 518.659
END IONS

BEGIN IONS
TITLE=Spectrum54 scans: 121,
PEPMASS=458.87683 39084.40625
CHARGE=2+
RTINSECONDS=37
SCANS=121
188.99707 1111.46
207.00751 2045.65
216.99132 616.559
217.02817 352.419
376.90567 361.261
386.89032 5309.33
392.90085 1249.4
402.88550 6707.94
404.90082 3308.14
410.91138 735.391
412.86365 696.33
420.89618 8382.9
422.91150 485.637
430.88013 24122.7
438.90543 944.375
448.89081 21643.9
458.87421 1779.91
466.90005 1146.91
512.85278 1746.24
513.85486 466.232
530.86145 677.243
531.80414 1390.57
540.80786 2811.69
541.30597 471.114
549.81165 2795.1
550.31427 376.851
558.81989 964.729
END IONS

BEGIN IONS
TITLE=Spectrum55 scans: 123,
PEPMASS=352.90564 16813.50391
CHARGE=2+
RTINSECONDS=38
SCANS=123
265.43069 396.152
280.96130 543.373
282.15973 1120.4
282.93933 552.487
295.41211 340.674
295.89139 359.09
296.90903 470.016
298.93146 384.605
298.97336 329.541
300.95026 782.151
303.87082 1385.64
305.91080 2772.77
306.89603 350.811
310.90378 736.107
312.90018 333.397
313.90387 787.244
314.91934 5584.38
315.41946 1115.2
315.90332 2065.1
316.40479 1020.52
316.94156 922.922
319.90991 4372.37
320.41031 886.494
321.87936 854.502
323.92294 7247.96
324.42438 992.118
324.90808 5012.48
324.94968 2781.34
325.40955 1521.44
326.92444 4830.04
326.96457 356.163
327.92868 524.346
328.91510 3583.89
329.41531 777.059
331.86539 800.507
332.93427 7707.35
333.91473 3652.37
334.41418 1138.01
337.91833 1090.27
339.91116 333.629
342.91852 22513.3
342.96219 3819.22
343.41653 618.738
343.92230 2756.13
344.93906 503.252
346.89789 1219.93
347.89825 429.507
349.87634 442.633
351.89020 482.568
351.92285 730.032
352.23810 2162.28
352.88275 346.291
352.98367 411.618
355.90140 1387.02
356.40012 350.989
357.89188 338.274
359.86072 993.715
360.92917 5393.71
361.39554 560.673
361.93008 820.58
364.90442 578.348
365.88791 834.126
366.90433 394.725
369.89844 1198.02
370.40088 408.949
370.91391 3646.63
370.99451 420.074
371.85867 1766.11
371.91818 462.942
374.89267 1447.3
375.39722 482.603
377.86887 403.316
378.91766 666.156
383.89911 1079.96
388.92261 2638.13
389.86835 545.508
389.92963 357.9
406.87442 641.883
407.87512 354.775
424.88892 640.683
442.86426 356.254
END IONS

BEGIN IONS
TITLE=Spectrum59 scans: 132,
PEPMASS=497.87512 2848.52466
CHARGE=2+
RTINSECONDS=40
SCANS=132
459.84296 349.74
460.84406 638.225
477.85916 386.817
478.85132 697.917
496.86453 962.926
504.83060 691.764
512.85248 341.468
522.84290 2306.56
524.81219 517.796
534.83496 1453.38
540.85364 2932.09
552.84497 732.548
561.77826 1032.52
570.78247 710.616
579.78998 714.502
588.78180 349.748
END IONS

BEGIN IONS
TITLE=Spectrum61 scans: 137,
PEPMASS=414.90219 199914.64063
CHARGE=2+
RTINSECONDS=42
SCANS=137
234.97118 1253.14
344.97601 1400.8
388.88849 1247.5
393.90347 679.733
394.90329 916.132
399.01660 2348.6
404.87619 749.335
406.90381 950.836
414.91629 486.62
422.89810 1434.09
432.87692 695.237
481.48569 548.898
486.82211 722.395
492.82941 1088.65
498.82935 852.411
END IONS

BEGIN IONS
TITLE=Spectrum62 scans: 139,
PEPMASS=365.91626 42519.95313
CHARGE=2+
RTINSECONDS=43
SCANS=139
222.96100 2176.86
266.94470 945.366
284.95551 1117.87
310.93472 28173.7
322.93723 467.458
327.09811 370.745
328.94540 55810.7
336.90335 378.585
338.92941 2983.21
345.88785 417.581
346.95615 797.921
355.87939 673.332
356.94019 8157.72
357.88950 579.075
358.93835 465.593
360.89633 826.175
365.19196 434.901
365.26532 336.402
365.89365 2493.3
366.91812 1116.62
369.90244 509.476
374.89340 1163.77
376.93851 493.499
378.92657 537.956
379.88632 505.302
383.90387 1286.97
384.93555 9520.8
388.89221 681.149
402.83817 591.836
402.94611 7992.85
420.84476 5174.48
426.84723 454.55
429.84473 2806.95
430.34442 390.932
432.84906 871.808
438.85406 10547.7
439.34918 1433.28
447.85681 6916.53
448.35474 1622.57
456.86911 32335.5
457.35876 876.065
465.86444 783.526
474.87875 3224.85
END IONS

BEGIN IONS
TITLE=Spectrum63 scans: 141,
PEPMASS=351.91956 26238.64063
CHARGE=2+
RTINSECONDS=43
SCANS=141
222.95914 503.641
223.96329 519.09
255.92409 561.432
256.42575 654.146
264.92862 686.894
273.93542 542.604
282.16052 841.135
294.89056 880.498
295.89359 1507.5
312.90060 1679.73
313.40802 372.909
313.90396 2795.13
314.92413 1422.1
316.93979 671.198
324.90576 376.713
324.94708 391.585
326.92429 4439.02
328.90802 373.112
332.93515 5050.82
336.38287 388.661
337.89288 339.146
338.24033 425.402
340.89944 511.119
341.40146 566.459
341.89920 378.932
341.98013 460.063
342.91891 16613.5
342.96414 835.165
344.93817 436.578
345.38519 687.907
346.89600 1353.63
349.90524 469.254
350.40598 1253.26
350.88370 355.798
351.13889 1196.18
351.21353 561.806
351.88965 715.095
352.23782 2120.1
354.39462 453.079
355.90170 1500.7
358.91269 831.353
359.40784 1541.37
359.56207 380.492
359.89029 644.477
360.39349 401.076
360.92862 4389.86
361.92490 782.46
364.90329 472.69
365.88498 1020.99
366.89459 439.081
368.40842 856.42
368.89279 559.21
369.04657 506.109
369.89880 2212.14
370.91434 3668.44
374.89215 2224.42
378.91556 553.036
383.89645 1130.1
387.87808 353.78
388.92383 2692.36
392.87543 378.572
397.87137 346.806
401.88217 411.145
406.87558 1874.04
415.88043 1207.57
424.88950 1320.96
440.88049 363.676
441.87589 517.033
442.86475 1062.96
473.85733 667.263
END IONS

BEGIN IONS
TITLE=Spectrum64 scans: 144,
PEPMASS=368.89099 16992.22070
CHARGE=2+
RTINSECONDS=44
SCANS=144
285.00980 1625.58
298.91537 407.034
312.94058 357.708
313.94287 365.97
316.92419 445.723
319.90863 384.133
324.89340 1654.09
324.94974 944.452
326.92447 8867.99
328.08136 749.809
328.91516 493.038
330.95227 601.548
331.95462 599.371
332.94006 1149.53
342.90085 16081.3
342.96298 1405.51
344.93405 1213.56
360.91623 37267.4
370.91403 25343.3
374.88504 524.336
378.92773 80498.8
379.22849 363.71
380.88425 595.367
380.93201 483.084
383.88696 551.543
388.92502 18149.5
398.89349 1963.67
406.86328 759.731
406.93155 1247.38
414.89063 453.072
424.87329 8809.89
425.87604 2687.26
434.87936 518.077
442.88577 3138.26
443.88937 974.447
451.86401 644.586
460.86880 869.468
469.87180 409.808
END IONS

BEGIN IONS
TITLE=Spectrum65 scans: 146,
PEPMASS=420.89737 64272.37500
CHARGE=2+
RTINSECONDS=45
SCANS=146
265.00824 392.826
359.40762 506.065
392.87885 372.367
396.37457 777.989
396.87677 441.755
402.88556 1813.78
404.87866 735.964
405.38123 1227.07
405.88129 579.958
410.88754 729.518
414.38489 729.589
419.37750 635.058
420.84146 2312.27
420.89722 3019.62
428.38556 373.447
474.84097 641.282
511.83978 399.589
END IONS

BEGIN IONS
TITLE=Spectrum66 scans: 149,
PEPMASS=421.90039 20363.07031
CHARGE=2+
RTINSECONDS=46
SCANS=149
340.90015 490.861
349.90610 1170.22
358.91147 1488.36
367.89255 552.485
368.89536 892.843
372.90948 375.849
377.90048 2238.45
384.90289 354.739
385.90466 1098.29
386.90555 1608.54
395.89581 587.331
404.88916 647.262
405.86530 386.518
409.87906 795.215
413.92194 562.385
414.86920 971.939
414.92200 820.905
418.88577 777.433
423.87509 1752.13
424.86032 1314.56
432.88132 1638.3
441.89008 346.821
442.87442 542.562
455.85980 555.151
460.84137 408.958
464.85956 467.672
473.87064 379.41
496.86230 689.294
END IONS

BEGIN IONS
TITLE=Spectrum67 scans: 151,
PEPMASS=411.39066 9245.68945
CHARGE=2+
RTINSECONDS=46
SCANS=151
310.93591 537.905
311.93927 436.747
326.96701 609.49
327.07745 1067.27
328.94519 1153.72
329.94864 766.282
331.89639 350.738
338.87360 602.881
340.90128 1229.29
341.40341 566.536
349.90482 2236.38
350.40649 983.386
354.96332 361.513
356.88608 944.995
358.91010 3259.08
359.41171 1976.88
359.86603 364.718
359.91339 453.523
363.89862 519.025
364.40207 607.404
367.91611 943.18
368.41440 409.983
368.89539 484.833
369.39493 530.828
372.89929 943.104
373.40662 704.499
373.88211 447.36
377.90094 1937.75
378.40103 1520.7
378.91980 472.23
381.89029 446.766
382.86359 1726.55
383.03061 595.658
383.86737 1438.39
386.90540 1212.14
387.40839 651.637
387.88556 397.901
390.88629 681.55
395.87906 1450.19
396.37808 962.469
399.88889 527.048
400.87021 845.284
401.36639 341.984
401.87750 674.337
404.88031 2420.68
405.38162 1438.9
405.88483 753.196
409.87155 426.083
410.37674 413.446
413.88547 1434.18
414.38806 984.017
418.87817 535.741
419.38290 541.26
500.84497 654.604
518.84784 408.962
END IONS

BEGIN IONS
TITLE=Spectrum68 scans: 153,
PEPMASS=497.86813 4076.80029
CHARGE=2+
RTINSECONDS=47
SCANS=153
117.11469 308.559
459.84137 345.061
460.85150 590.143
469.85031 432.119
470.83594 378.891
477.85599 449.06
498.27087 543.601
522.84363 904.356
540.85431 892.11
561.78229 932.614
570.78345 617.826
579.78558 947.934
580.28937 344.89
END IONS

BEGIN IONS
TITLE=Spectrum70 scans: 157,
PEPMASS=484.37347 4609.56396
CHARGE=2+
RTINSECONDS=48
SCANS=157
322.18167 598.465
382.86313 670.731
400.87708 405.507
445.87183 409.169
457.87341 377.991
460.84277 414.232
469.85208 349.813
481.89209 658.347
483.84863 648.282
484.29846 360.113
484.83908 1173.26
501.85989 1753.53
502.85147 1555.27
519.87097 1843.15
520.87518 611.221
537.88062 1219.92
538.88220 564.796
END IONS

BEGIN IONS
TITLE=Spectrum72 scans: 162,
PEPMASS=483.87646 3589.25635
CHARGE=2+
RTINSECONDS=50
SCANS=162
223.96400 321.195
322.18011 503.222
382.86237 728.335
428.86929 472.022
445.86877 444.95
460.84518 392.371
463.88382 367.035
480.88873 526.967
481.89081 612.297
483.85101 537.431
501.85944 2061.31
502.86301 619.454
519.87079 2062.42
520.87622 782.14
537.87891 1048.32
538.88129 413.876
580.80701 382.149
END IONS

BEGIN IONS
TITLE=Spectrum73 scans: 164,
PEPMASS=498.36865 2042.53931
CHARGE=2+
RTINSECONDS=50
SCANS=164
117.11445 326.517
459.84369 561.211
460.85034 653.55
469.85391 399.741
470.83575 463.935
478.85611 502.885
498.27057 444.201
522.84338 867.424
534.84869 336.298
540.85400 949.028
561.78174 704.761
570.77808 604.569
579.78564 721.586
END IONS

BEGIN IONS
TITLE=Spectrum74 scans: 167,
PEPMASS=413.40891 8437.15234
CHARGE=2+
RTINSECONDS=51
SCANS=167
194.94038 360.807
234.97107 1369.18
252.93515 331.01
344.97696 1202.19
378.90155 412.738
387.88992 611.141
388.89322 1363
389.88840 350.561
393.90372 860.13
394.90378 709.57
399.01740 2479.22
403.89178 466.111
404.89188 926.236
405.90704 401.727
406.90414 1203.41
411.91373 435.286
412.91254 479.606
414.92099 377.981
421.89557 679.789
422.89771 1144.06
423.89847 371.527
432.86804 959.119
450.89273 547.3
486.82834 449.037
492.83264 905.739
498.83200 731.797
END IONS

BEGIN IONS
TITLE=Spectrum75 scans: 169,
PEPMASS=476.88733 32399.22266
CHARGE=2+
RTINSECONDS=52
SCANS=169
411.36560 546.802
429.37573 600.596
438.38110 670.066
438.88290 366.058
484.83975 631.684
502.84781 804.589
512.83466 3775.93
513.83691 1734.61
530.84644 1474.06
531.84680 702.046
549.78607 371.64
554.80304 479.227
558.79291 618.376
566.80310 363.87
567.80255 367.782
END IONS

BEGIN IONS
TITLE=Spectrum76 scans: 171,
PEPMASS=498.37558 3898.03613
CHARGE=2+
RTINSECONDS=53
SCANS=171
459.84576 470.311
460.84760 870.448
469.85590 440.172
470.35507 370.541
470.83777 502.033
474.84750 422.37
478.85376 760.251
496.86398 389.13
498.27219 433.295
522.84479 945.845
534.84692 452.144
540.85339 1416.78
552.84979 437.397
561.77814 628.198
570.78015 789.208
571.78412 367.026
579.78516 997.084
580.78320 463.185
END IONS

BEGIN IONS
TITLE=Spectrum78 scans: 176,
PEPMASS=423.90076 7798.95947
CHARGE=2+
RTINSECONDS=54
SCANS=176
340.89902 622.332
349.90540 822.907
358.91095 1302.4
368.89499 896.461
377.90149 1654.97
384.89890 382.983
385.90643 973.095
386.90417 1267.69
395.89706 710.628
404.88757 467.979
409.88010 668.631
413.91391 536.945
414.86932 1361.47
414.92236 832.107
418.88550 865.445
423.87439 1657.76
424.86090 965.044
432.88165 1408.48
441.88190 447.532
442.86917 466.066
446.85574 439.567
450.86884 383.91
452.87411 394.315
455.85690 340.052
469.85370 350.001
478.85187 929.063
496.85760 1881.15
512.86212 348.603
513.81244 495.824
514.86560 347.361
END IONS

BEGIN IONS
TITLE=Spectrum79 scans: 178,
PEPMASS=436.41147 9672.59473
CHARGE=2+
RTINSECONDS=55
SCANS=178
328.94278 423.876
382.86530 1513.14
400.87671 740.516
446.85519 628.63
455.85788 905.421
456.36533 466.149
464.86911 352.037
501.80716 374.173
510.81458 1548.53
519.81915 2524.46
520.32007 413.325
520.81738 655.981
528.76080 376.292
528.82861 1414.94
529.82593 573.668
537.82660 1046.73
546.80023 897.936
END IONS

BEGIN IONS
TITLE=Spectrum81 scans: 184,
PEPMASS=402.88632 49203.45703
CHARGE=2+
RTINSECONDS=57
SCANS=184
111.11670 400.412
117.06988 1494.79
179.01205 522.783
364.88104 418.58
373.88870 411.465
374.89255 2497.5
376.90820 1757.67
379.88623 393.271
384.87436 533.697
388.89050 473.699
392.88834 13725.4
393.89246 2232.35
394.91861 668.414
401.38361 371.671
402.88666 17246.6
403.12192 343.531
403.87604 459.175
410.38736 741.4
410.89911 21159.9
411.90051 2984.43
416.86115 384.066
419.39124 793.338
420.89709 20506
421.87680 343.086
425.86777 657.451
434.87152 608.227
438.90701 2652.99
456.83139 371.166
474.84521 1203.25
475.85257 395.764
486.84311 514.709
492.84644 635.989
END IONS

BEGIN IONS
TITLE=Spectrum82 scans: 186,
PEPMASS=438.39929 9889.30371
CHARGE=2+
RTINSECONDS=58
SCANS=186
354.96082 403.096
382.86484 2337.7
400.87543 915.008
420.91779 445.721
441.85959 420.522
446.85764 515.076
455.86032 515.833
465.36853 434.902
480.88513 468.566
501.80392 609.889
510.81146 1454.81
511.81671 425.543
519.81897 2999.19
520.31635 606.031
520.82043 730.589
528.82867 1924.93
529.31915 472.863
529.82343 645.184
537.82904 1166.67
546.80310 896.743
END IONS

BEGIN IONS
TITLE=Spectrum83 scans: 188,
PEPMASS=482.38531 6820.99316
CHARGE=2+
RTINSECONDS=58
SCANS=188
100.07963 644.996
101.08730 314.621
117.11443 355.402
222.96098 584.28
320.16534 1224.78
444.86667 771.757
453.87418 477.754
456.86722 539.166
462.88068 957.594
472.86249 460.249
474.87808 519.9
480.88818 2106.63
482.27670 1027.08
482.84558 640.79
498.89771 426.938
500.85471 4561.45
518.86670 3770.33
536.87616 2473.86
554.83112 896.728
560.79834 375.727
566.79559 547.694
END IONS

BEGIN IONS
TITLE=Spectrum85 scans: 192,
PEPMASS=410.43469 5296.70703
CHARGE=2+
RTINSECONDS=59
SCANS=192
303.88260 514.564
305.89798 327.182
310.93509 945.031
326.96515 544.256
328.27139 1613.72
328.94568 2307.2
329.94824 626.581
331.87799 549.678
333.89224 419.665
338.87555 539.528
340.90118 618.76
346.28192 339.399
349.90573 962.344
354.89035 499.799
354.96326 416.04
356.88535 1507.09
358.91113 1881.52
359.40756 348.317
359.87262 802.782
363.89572 838.421
367.91489 887.986
368.89517 637.212
372.90067 843.587
373.87854 437.729
377.90320 1316.31
382.86411 2218.49
383.02780 589.563
386.90427 910.74
390.88321 916.372
395.87576 978.722
396.38281 382.063
399.89236 339.479
400.87454 1276.01
404.87991 1523.82
405.38293 808.64
409.87262 633.985
410.37677 380.027
413.88620 1096.64
414.38724 341.825
418.87509 676.64
419.37720 382.577
445.87140 483.689
463.87790 758.802
481.89224 1275.47
500.84457 696.066
518.85455 442.465
END IONS

BEGIN IONS
TITLE=Spectrum89 scans: 202,
PEPMASS=352.90555 21952.41211
CHARGE=2+
RTINSECONDS=62
SCANS=202
256.42697 391.312
265.43048 328.848
280.96085 399.36
282.15985 1087.61
282.93881 497.626
294.91049 418.399
295.89526 520.984
298.93042 375.719
298.97141 361.902
300.94989 690.938
303.87057 1005.02
305.91144 2960
306.41364 569.006
306.89963 502.069
310.90613 668.087
312.90408 530.041
313.90521 1128.49
314.92023 4025.36
315.41977 841.786
315.90378 2002.97
316.40546 817.905
316.94196 643.172
318.42224 329.785
319.91037 3395.83
320.41037 1040.82
321.88174 756.052
323.92346 5595.21
324.42471 1147.12
324.90857 4014.23
324.95010 2443.68
325.41010 2250.97
326.92441 5194.63
326.96182 416.765
327.92847 854.506
328.91583 3334.17
329.41641 1178.67
331.86746 945.767
332.93457 5960.79
333.88010 795.17
333.91562 2795.38
334.41470 1460.61
337.91934 978.371
338.41180 451.26
342.91895 19756.9
342.96252 2618.65
343.41776 1036.84
343.92291 3331.02
344.93741 616.269
346.89621 625.335
349.87424 474.362
351.92572 680.545
352.14117 412.496
352.23868 2066.97
352.42264 477.447
352.98465 383.191
353.24225 369.403
355.90079 1173.33
356.40070 473.873
359.85968 448.172
360.92944 4409.82
361.39444 344.811
361.93112 838.565
364.90680 521.487
365.88892 621.091
369.89883 1390.88
370.40051 837.837
370.91510 3492.45
371.85959 2160.27
371.91849 794.99
374.89368 1670.82
375.39529 804.996
377.86780 345.457
378.92117 498.685
383.89819 774.506
384.39880 392.165
388.92407 2927.22
389.87350 432.07
389.92731 780.855
406.87766 773.012
415.87930 367.468
424.89166 966.066
442.86609 528.652
END IONS

BEGIN IONS
TITLE=Spectrum90 scans: 204,
PEPMASS=409.90643 3396.65210
CHARGE=2+
RTINSECONDS=63
SCANS=204
303.88272 651.929
305.89890 339.528
310.93408 643.566
328.27097 1381.06
328.94550 1518.3
331.87625 896.083
346.28149 680.704
356.88461 697.182
359.87140 944.525
371.87097 356.705
372.89996 616.008
382.86340 1201.61
386.86719 374.97
390.88235 641.033
395.87473 851.618
399.89014 340.946
400.87357 464.226
404.88046 1723.23
409.87225 447.867
413.88501 737.196
418.87585 604.096
445.86505 374.453
463.88202 700.205
481.49619 359.372
481.89090 1170.42
482.82770 371.097
490.83762 473.564
493.49826 350.795
499.83713 648.066
500.84705 807.126
518.85870 357.071
END IONS

BEGIN IONS
TITLE=Spectrum91 scans: 206,
PEPMASS=437.89731 3516.75806
CHARGE=2+
RTINSECONDS=64
SCANS=206
382.86194 415.686
383.86923 1075.06
386.88535 678.262
392.89993 446.009
401.87970 501.908
402.88577 1243.8
404.90799 460.626
412.88556 505.658
420.89563 1868.12
430.89294 5537.87
434.86411 419.807
440.86411 401.825
448.90332 7057.3
458.87579 1941.16
466.91635 388.043
476.87738 593.343
494.85696 346.858
512.85852 560.196
529.82428 341.296
END IONS

BEGIN IONS
TITLE=Spectrum92 scans: 209,
PEPMASS=424.40155 9773.72070
CHARGE=2+
RTINSECONDS=65
SCANS=209
100.07969 410.361
117.11428 524.65
263.17255 2516.03
330.93933 453.32
331.89709 372.322
340.90018 1038.2
341.40353 401.93
349.90558 1333.2
350.40680 331.405
358.91150 1463.94
359.41141 657.787
367.91711 738.927
368.89456 845.819
369.39548 404.94
377.90021 2059.34
378.40244 1150.07
385.90659 939.937
386.90540 1572.74
387.40805 845.361
395.88889 469.138
404.88895 489.282
405.86633 674.159
407.27365 1050.59
409.87964 824.578
410.38080 431.237
413.91602 547.026
414.86877 1060.76
414.92148 1808.85
418.88507 696.936
423.87619 1625.94
424.37720 1078.2
424.85913 6514.68
425.28604 1796.23
432.88248 1109.29
433.38309 651.522
442.87057 4084.79
460.88010 401.653
496.86023 767.341
END IONS

BEGIN IONS
TITLE=Spectrum93 scans: 211,
PEPMASS=409.89423 3187.74512
CHARGE=2+
RTINSECONDS=65
SCANS=211
303.88272 511.586
305.89890 405.193
310.93445 797.189
328.27048 1344.73
328.94513 1587.51
331.87680 566.043
349.90118 386.18
356.88660 660.677
358.90817 342.783
359.87152 980.183
372.88336 642.052
381.88907 339.813
382.86453 1487.78
395.87421 760.265
400.87372 621.101
404.88031 1503.94
409.87033 456.086
413.88641 834.466
418.87796 591.859
445.86969 345.362
463.88116 851.006
481.89078 1436.26
482.83817 484.233
499.83813 454.896
500.84714 631.515
518.86707 482.081
END IONS

BEGIN IONS
TITLE=Spectrum94 scans: 214,
PEPMASS=410.89218 4832.84961
CHARGE=2+
RTINSECONDS=66
SCANS=214
327.07874 339.756
329.94998 472.737
340.89978 439.189
341.40225 548.773
342.90417 751.754
348.91180 969.485
349.90479 490.234
350.40707 983.334
356.88229 454.294
357.88846 461.34
358.89050 1465.52
359.41074 1462.84
359.91214 452.553
360.91562 1699
364.90451 689.74
368.41797 719.339
369.39923 596.327
372.90015 357.158
374.89075 3235.92
376.90662 6428.96
378.40253 1027.77
378.92767 2370.56
383.86826 841.317
386.88995 13867.9
387.40454 974.013
392.90140 12499.3
394.91721 2706.28
396.38748 497.514
401.87799 359.902
402.88538 11035.1
404.90143 9927.38
405.38364 913.477
405.88913 502.534
410.37366 425.875
410.91180 6629.97
414.38934 601.009
419.37973 397.507
420.89609 12754.8
422.91187 1395.19
430.88004 6603.97
438.90613 1933.53
448.89075 5832.76
466.90054 359.623
END IONS

BEGIN IONS
TITLE=Spectrum95 scans: 216,
PEPMASS=440.38873 2101.81494
CHARGE=2+
RTINSECONDS=67
SCANS=216
382.86377 422.475
383.86969 687.249
386.89651 608.783
389.87268 359.279
392.90131 537.222
393.89343 743.79
398.88062 546.893
402.88266 1414.47
404.90836 624.398
412.88348 623.659
420.89508 1490.99
430.89319 6217.98
439.85947 456.369
448.90308 8824.29
458.87543 1841.93
466.91370 512.341
476.88193 931.441
512.85431 544.215
END IONS

BEGIN IONS
TITLE=Spectrum96 scans: 219,
PEPMASS=481.88739 3982.80762
CHARGE=2+
RTINSECONDS=68
SCANS=219
100.07974 646.147
117.11479 419.211
320.16537 1133.45
444.86887 471.356
453.87537 393.288
456.86722 583.053
462.87921 913.086
474.87857 550.615
480.88754 2074
482.27567 1027.97
482.84384 756.573
500.85541 4141.72
518.86652 4151.05
536.87720 2101.18
554.83484 668.324
566.80054 371.175
572.84216 457.319
END IONS

BEGIN IONS
TITLE=Spectrum97 scans: 222,
PEPMASS=436.93741 11159.32715
CHARGE=2+
RTINSECONDS=69
SCANS=222
354.96210 387.4
356.89026 373.448
382.86499 1905.68
400.87491 1077.88
474.84592 351.347
501.80377 346.466
510.81088 771.448
519.81836 2013.15
520.82111 482.171
528.82220 1215.17
529.82501 361.036
537.82520 569.599
END IONS

BEGIN IONS
TITLE=Spectrum98 scans: 224,
PEPMASS=633.35901 4795.04834
CHARGE=2+
RTINSECONDS=70
SCANS=224
117.11427 2697.53
407.27438 425.952
471.24667 469.823
551.37225 452.026
569.38556 2243.51
570.38318 417.939
615.34998 587.4
633.35931 806.123
722.71259 381.576
740.73151 501.86
758.74072 336.226
END IONS

BEGIN IONS
TITLE=Spectrum99 scans: 226,
PEPMASS=497.87042 1850.62708
CHARGE=2+
RTINSECONDS=71
SCANS=226
432.85962 366.821
459.84674 497.01
460.85095 507.134
469.85464 463.026
470.83945 441.38
474.84549 367.249
477.85181 344.586
488.84576 336.327
498.27274 590.726
540.85236 458.232
561.78015 583.778
562.78455 340.538
570.78198 775.986
571.28162 453.631
571.78070 411.363
579.78595 491.034
END IONS

